# Palletizing Path Visualization Data
# Format: index q1 q2 q3 q4 q5 q6 (degrees)
0 0.0000 -90.0000 30.0000 0.0000 -60.0000 0.0000
1 -1.4299 -88.9276 30.7149 0.7149 -59.2851 1.0724
2 -2.6278 -88.0291 31.3139 1.3139 -58.6861 1.9709
3 -3.6461 -87.2654 31.8231 1.8231 -58.1769 2.7346
4 -4.5272 -86.6046 32.2636 2.2636 -57.7364 3.3954
5 -5.3047 -86.0215 32.6523 2.6523 -57.3477 3.9785
6 -6.0044 -85.4967 33.0022 3.0022 -56.9978 4.5033
7 -6.6458 -85.0157 33.3229 3.3229 -56.6771 4.9843
8 -7.2426 -84.5681 33.6213 3.6213 -56.3787 5.4319
9 -7.8042 -84.1468 33.9021 3.9021 -56.0979 5.8532
10 -8.3369 -83.7474 34.1684 4.1684 -55.8316 6.2526
11 -8.8445 -83.3666 34.4223 4.4223 -55.5777 6.6334
12 -9.3301 -83.0024 34.6650 4.6650 -55.3350 6.9976
13 -9.7960 -82.6530 34.8980 4.8980 -55.1020 7.3470
14 -10.2444 -82.3167 35.1222 5.1222 -54.8778 7.6833
15 -10.6771 -81.9922 35.3385 5.3385 -54.6615 8.0078
16 -11.0957 -81.6782 35.5478 5.5478 -54.4522 8.3218
17 -11.5016 -81.3738 35.7508 5.7508 -54.2492 8.6262
18 -11.8960 -81.0780 35.9480 5.9480 -54.0520 8.9220
19 -12.2800 -80.7900 36.1400 6.1400 -53.8600 9.2100
20 -12.6545 -80.5091 36.3273 6.3273 -53.6727 9.4909
21 -13.0204 -80.2347 36.5102 6.5102 -53.4898 9.7653
22 -13.3784 -79.9662 36.6892 6.6892 -53.3108 10.0338
23 -13.7293 -79.7030 36.8647 6.8647 -53.1353 10.2970
24 -14.0739 -79.4446 37.0370 7.0370 -52.9630 10.5554
25 -14.4129 -79.1903 37.2064 7.2064 -52.7936 10.8097
26 -14.7470 -78.9398 37.3735 7.3735 -52.6265 11.0602
27 -15.0767 -78.6924 37.5384 7.5384 -52.4616 11.3076
28 -15.4029 -78.4478 37.7015 7.7015 -52.2985 11.5522
29 -15.7260 -78.2055 37.8630 7.8630 -52.1370 11.7945
30 -16.0467 -77.9650 38.0233 8.0233 -51.9767 12.0350
31 -16.3653 -77.7260 38.1826 8.1826 -51.8174 12.2740
32 -16.6823 -77.4883 38.3412 8.3412 -51.6588 12.5117
33 -16.9982 -77.2514 38.4991 8.4991 -51.5009 12.7486
34 -17.3131 -77.0152 38.6565 8.6565 -51.3435 12.9848
35 -17.6274 -76.7795 38.8137 8.8137 -51.1863 13.2205
36 -17.9412 -76.5441 38.9706 8.9706 -51.0294 13.4559
37 -18.2548 -76.3089 39.1274 9.1274 -50.8726 13.6911
38 -18.5681 -76.0739 39.2841 9.2841 -50.7159 13.9261
39 -18.8814 -75.8389 39.4407 9.4407 -50.5593 14.1611
40 -19.1946 -75.6040 39.5973 9.5973 -50.4027 14.3960
41 -19.5078 -75.3691 39.7539 9.7539 -50.2461 14.6309
42 -19.8210 -75.1342 39.9105 9.9105 -50.0895 14.8658
43 -20.1342 -74.8993 40.0671 10.0671 -49.9329 15.1007
44 -20.4474 -74.6644 40.2237 10.2237 -49.7763 15.3356
45 -20.7606 -74.4295 40.3803 10.3803 -49.6197 15.5705
46 -21.0738 -74.1946 40.5369 10.5369 -49.4631 15.8054
47 -21.3870 -73.9597 40.6935 10.6935 -49.3065 16.0403
48 -21.7002 -73.7248 40.8501 10.8501 -49.1499 16.2752
49 -22.0134 -73.4899 41.0067 11.0067 -48.9933 16.5101
50 -22.3266 -73.2550 41.1633 11.1633 -48.8367 16.7450
51 -22.6398 -73.0201 41.3199 11.3199 -48.6801 16.9799
52 -22.9530 -72.7852 41.4765 11.4765 -48.5235 17.2148
53 -23.2662 -72.5503 41.6331 11.6331 -48.3669 17.4497
54 -23.5794 -72.3154 41.7897 11.7897 -48.2103 17.6846
55 -23.8926 -72.0805 41.9463 11.9463 -48.0537 17.9195
56 -24.2058 -71.8456 42.1029 12.1029 -47.8971 18.1544
57 -24.5190 -71.6107 42.2595 12.2595 -47.7405 18.3893
58 -24.8322 -71.3758 42.4161 12.4161 -47.5839 18.6242
59 -25.1454 -71.1409 42.5727 12.5727 -47.4273 18.8591
60 -25.4586 -70.9060 42.7293 12.7293 -47.2707 19.0940
61 -25.7718 -70.6711 42.8859 12.8859 -47.1141 19.3289
62 -26.0850 -70.4362 43.0425 13.0425 -46.9575 19.5638
63 -26.3982 -70.2013 43.1991 13.1991 -46.8009 19.7987
64 -26.7114 -69.9664 43.3557 13.3557 -46.6443 20.0336
65 -27.0246 -69.7315 43.5123 13.5123 -46.4877 20.2685
66 -27.3378 -69.4966 43.6689 13.6689 -46.3311 20.5034
67 -27.6510 -69.2617 43.8255 13.8255 -46.1745 20.7383
68 -27.9642 -69.0268 43.9821 13.9821 -46.0179 20.9732
69 -28.2774 -68.7919 44.1387 14.1387 -45.8613 21.2081
70 -28.5906 -68.5570 44.2953 14.2953 -45.7047 21.4430
71 -28.9038 -68.3221 44.4519 14.4519 -45.5481 21.6779
72 -29.2170 -68.0872 44.6085 14.6085 -45.3915 21.9128
73 -29.5302 -67.8523 44.7651 14.7651 -45.2349 22.1477
74 -29.8434 -67.6174 44.9217 14.9217 -45.0783 22.3826
75 -30.1566 -67.3826 45.0783 15.0783 -44.9217 22.6174
76 -30.4698 -67.1477 45.2349 15.2349 -44.7651 22.8523
77 -30.7830 -66.9128 45.3915 15.3915 -44.6085 23.0872
78 -31.0962 -66.6779 45.5481 15.5481 -44.4519 23.3221
79 -31.4094 -66.4430 45.7047 15.7047 -44.2953 23.5570
80 -31.7226 -66.2081 45.8613 15.8613 -44.1387 23.7919
81 -32.0358 -65.9732 46.0179 16.0179 -43.9821 24.0268
82 -32.3490 -65.7383 46.1745 16.1745 -43.8255 24.2617
83 -32.6622 -65.5034 46.3311 16.3311 -43.6689 24.4966
84 -32.9754 -65.2685 46.4877 16.4877 -43.5123 24.7315
85 -33.2886 -65.0336 46.6443 16.6443 -43.3557 24.9664
86 -33.6018 -64.7987 46.8009 16.8009 -43.1991 25.2013
87 -33.9150 -64.5638 46.9575 16.9575 -43.0425 25.4362
88 -34.2282 -64.3289 47.1141 17.1141 -42.8859 25.6711
89 -34.5414 -64.0940 47.2707 17.2707 -42.7293 25.9060
90 -34.8546 -63.8591 47.4273 17.4273 -42.5727 26.1409
91 -35.1678 -63.6242 47.5839 17.5839 -42.4161 26.3758
92 -35.4810 -63.3893 47.7405 17.7405 -42.2595 26.6107
93 -35.7942 -63.1544 47.8971 17.8971 -42.1029 26.8456
94 -36.1074 -62.9195 48.0537 18.0537 -41.9463 27.0805
95 -36.4206 -62.6846 48.2103 18.2103 -41.7897 27.3154
96 -36.7338 -62.4497 48.3669 18.3669 -41.6331 27.5503
97 -37.0470 -62.2148 48.5235 18.5235 -41.4765 27.7852
98 -37.3602 -61.9799 48.6801 18.6801 -41.3199 28.0201
99 -37.6734 -61.7450 48.8367 18.8367 -41.1633 28.2550
100 -37.9866 -61.5101 48.9933 18.9933 -41.0067 28.4899
101 -38.2998 -61.2752 49.1499 19.1499 -40.8501 28.7248
102 -38.6130 -61.0403 49.3065 19.3065 -40.6935 28.9597
103 -38.9262 -60.8054 49.4631 19.4631 -40.5369 29.1946
104 -39.2394 -60.5705 49.6197 19.6197 -40.3803 29.4295
105 -39.5526 -60.3356 49.7763 19.7763 -40.2237 29.6644
106 -39.8658 -60.1007 49.9329 19.9329 -40.0671 29.8993
107 -40.1790 -59.8658 50.0895 20.0895 -39.9105 30.1342
108 -40.4922 -59.6309 50.2461 20.2461 -39.7539 30.3691
109 -40.8054 -59.3960 50.4027 20.4027 -39.5973 30.6040
110 -41.1186 -59.1611 50.5593 20.5593 -39.4407 30.8389
111 -41.4319 -58.9261 50.7159 20.7159 -39.2841 31.0739
112 -41.7452 -58.6911 50.8726 20.8726 -39.1274 31.3089
113 -42.0588 -58.4559 51.0294 21.0294 -38.9706 31.5441
114 -42.3726 -58.2205 51.1863 21.1863 -38.8137 31.7795
115 -42.6869 -57.9848 51.3435 21.3435 -38.6565 32.0152
116 -43.0018 -57.7486 51.5009 21.5009 -38.4991 32.2514
117 -43.3177 -57.5117 51.6588 21.6588 -38.3412 32.4883
118 -43.6347 -57.2740 51.8174 21.8174 -38.1826 32.7260
119 -43.9533 -57.0350 51.9767 21.9767 -38.0233 32.9650
120 -44.2740 -56.7945 52.1370 22.1370 -37.8630 33.2055
121 -44.5971 -56.5522 52.2985 22.2985 -37.7015 33.4478
122 -44.9233 -56.3076 52.4616 22.4616 -37.5384 33.6924
123 -45.2530 -56.0602 52.6265 22.6265 -37.3735 33.9398
124 -45.5871 -55.8097 52.7936 22.7936 -37.2064 34.1903
125 -45.9261 -55.5554 52.9630 22.9630 -37.0370 34.4446
126 -46.2707 -55.2970 53.1353 23.1353 -36.8647 34.7030
127 -46.6216 -55.0338 53.3108 23.3108 -36.6892 34.9662
128 -46.9796 -54.7653 53.4898 23.4898 -36.5102 35.2347
129 -47.3455 -54.4909 53.6727 23.6727 -36.3273 35.5091
130 -47.7200 -54.2100 53.8600 23.8600 -36.1400 35.7900
131 -48.1040 -53.9220 54.0520 24.0520 -35.9480 36.0780
132 -48.4984 -53.6262 54.2492 24.2492 -35.7508 36.3738
133 -48.9043 -53.3218 54.4522 24.4522 -35.5478 36.6782
134 -49.3229 -53.0078 54.6615 24.6615 -35.3385 36.9922
135 -49.7556 -52.6833 54.8778 24.8778 -35.1222 37.3167
136 -50.2040 -52.3470 55.1020 25.1020 -34.8980 37.6530
137 -50.6699 -51.9976 55.3350 25.3350 -34.6650 38.0024
138 -51.1555 -51.6334 55.5777 25.5777 -34.4223 38.3666
139 -51.6631 -51.2526 55.8316 25.8316 -34.1684 38.7474
140 -52.1958 -50.8532 56.0979 26.0979 -33.9021 39.1468
141 -52.7574 -50.4319 56.3787 26.3787 -33.6213 39.5681
142 -53.3542 -49.9843 56.6771 26.6771 -33.3229 40.0157
143 -53.9956 -49.5033 56.9978 26.9978 -33.0022 40.4967
144 -54.6953 -48.9785 57.3477 27.3477 -32.6523 41.0215
145 -55.4728 -48.3954 57.7364 27.7364 -32.2636 41.6046
146 -56.3539 -47.7346 58.1769 28.1769 -31.8231 42.2654
147 -57.3722 -46.9709 58.6861 28.6861 -31.3139 43.0291
148 -58.5701 -46.0724 59.2851 29.2851 -30.7149 43.9276
149 -60.0000 -45.0000 60.0000 30.0000 -30.0000 45.0000
