# B-Spline Sampled Path
# Format: t q1 q2 q3 q4 q5 q6 (degrees)
0.0000 0.0000 -90.0000 30.0000 0.0000 -60.0000 0.0000
0.0050 -1.0947 -89.1790 30.5474 0.5474 -59.4526 0.8210
0.0101 -2.0513 -88.4615 31.0257 1.0257 -58.9743 1.5385
0.0151 -2.8934 -87.8299 31.4467 1.4467 -58.5533 2.1701
0.0201 -3.6414 -87.2690 31.8207 1.8207 -58.1793 2.7310
0.0251 -4.3125 -86.7657 32.1562 2.1562 -57.8438 3.2343
0.0302 -4.9212 -86.3091 32.4606 2.4606 -57.5394 3.6909
0.0352 -5.4797 -85.8902 32.7399 2.7399 -57.2601 4.1098
0.0402 -5.9977 -85.5017 32.9989 2.9989 -57.0011 4.4983
0.0452 -6.4830 -85.1378 33.2415 3.2415 -56.7585 4.8622
0.0503 -6.9416 -84.7938 33.4708 3.4708 -56.5292 5.2062
0.0553 -7.3781 -84.4664 33.6891 3.6891 -56.3109 5.5336
0.0603 -7.7960 -84.1530 33.8980 3.8980 -56.1020 5.8470
0.0653 -8.1976 -83.8518 34.0988 4.0988 -55.9012 6.1482
0.0704 -8.5847 -83.5615 34.2923 4.2923 -55.7077 6.4385
0.0754 -8.9586 -83.2810 34.4793 4.4793 -55.5207 6.7190
0.0804 -9.3205 -83.0096 34.6603 4.6603 -55.3397 6.9904
0.0854 -9.6714 -82.7465 34.8357 4.8357 -55.1643 7.2535
0.0905 -10.0121 -82.4909 35.0061 5.0061 -54.9939 7.5091
0.0955 -10.3435 -82.2424 35.1718 5.1718 -54.8282 7.7576
0.1005 -10.6664 -82.0002 35.3332 5.3332 -54.6668 7.9998
0.1055 -10.9813 -81.7640 35.4906 5.4906 -54.5094 8.2360
0.1106 -11.2889 -81.5333 35.6445 5.6445 -54.3555 8.4667
0.1156 -11.5897 -81.3077 35.7949 5.7949 -54.2051 8.6923
0.1206 -11.8843 -81.0868 35.9421 5.9421 -54.0579 8.9132
0.1256 -12.1730 -80.8703 36.0865 6.0865 -53.9135 9.1297
0.1307 -12.4562 -80.6579 36.2281 6.2281 -53.7719 9.3421
0.1357 -12.7343 -80.4493 36.3671 6.3671 -53.6329 9.5507
0.1407 -13.0077 -80.2442 36.5038 6.5038 -53.4962 9.7558
0.1457 -13.2766 -80.0425 36.6383 6.6383 -53.3617 9.9575
0.1508 -13.5415 -79.8439 36.7707 6.7707 -53.2293 10.1561
0.1558 -13.8026 -79.6481 36.9013 6.9013 -53.0987 10.3519
0.1608 -14.0602 -79.4549 37.0301 7.0301 -52.9699 10.5451
0.1658 -14.3146 -79.2640 37.1573 7.1573 -52.8427 10.7360
0.1709 -14.5662 -79.0753 37.2831 7.2831 -52.7169 10.9247
0.1759 -14.8152 -78.8886 37.4076 7.4076 -52.5924 11.1114
0.1809 -15.0619 -78.7036 37.5310 7.5310 -52.4690 11.2964
0.1859 -15.3066 -78.5201 37.6533 7.6533 -52.3467 11.4799
0.1910 -15.5494 -78.3380 37.7747 7.7747 -52.2253 11.6620
0.1960 -15.7907 -78.1570 37.8953 7.8953 -52.1047 11.8430
0.2010 -16.0306 -77.9770 38.0153 8.0153 -51.9847 12.0230
0.2060 -16.2694 -77.7979 38.1347 8.1347 -51.8653 12.2021
0.2111 -16.5072 -77.6196 38.2536 8.2536 -51.7464 12.3804
0.2161 -16.7443 -77.4418 38.3722 8.3722 -51.6278 12.5582
0.2211 -16.9807 -77.2645 38.4904 8.4904 -51.5096 12.7355
0.2261 -17.2166 -77.0875 38.6083 8.6083 -51.3917 12.9125
0.2312 -17.4521 -76.9109 38.7261 8.7261 -51.2739 13.0891
0.2362 -17.6873 -76.7345 38.8437 8.8437 -51.1563 13.2655
0.2412 -17.9223 -76.5583 38.9611 8.9611 -51.0389 13.4417
0.2462 -18.1571 -76.3822 39.0785 9.0785 -50.9215 13.6178
0.2513 -18.3918 -76.2062 39.1959 9.1959 -50.8041 13.7938
0.2563 -18.6264 -76.0302 39.3132 9.3132 -50.6868 13.9698
0.2613 -18.8609 -75.8543 39.4305 9.4305 -50.5695 14.1457
0.2663 -19.0955 -75.6784 39.5477 9.5477 -50.4523 14.3216
0.2714 -19.3300 -75.5025 39.6650 9.6650 -50.3350 14.4975
0.2764 -19.5645 -75.3266 39.7822 9.7822 -50.2178 14.6734
0.2814 -19.7990 -75.1508 39.8995 9.8995 -50.1005 14.8492
0.2864 -20.0335 -74.9749 40.0168 10.0168 -49.9832 15.0251
0.2915 -20.2680 -74.7990 40.1340 10.1340 -49.8660 15.2010
0.2965 -20.5025 -74.6231 40.2513 10.2513 -49.7487 15.3769
0.3015 -20.7370 -74.4472 40.3685 10.3685 -49.6315 15.5528
0.3065 -20.9715 -74.2714 40.4858 10.4858 -49.5142 15.7286
0.3116 -21.2060 -74.0955 40.6030 10.6030 -49.3970 15.9045
0.3166 -21.4405 -73.9196 40.7203 10.7203 -49.2797 16.0804
0.3216 -21.6750 -73.7437 40.8375 10.8375 -49.1625 16.2563
0.3266 -21.9095 -73.5678 40.9548 10.9548 -49.0452 16.4322
0.3317 -22.1441 -73.3920 41.0720 11.0720 -48.9280 16.6080
0.3367 -22.3786 -73.2161 41.1893 11.1893 -48.8107 16.7839
0.3417 -22.6131 -73.0402 41.3065 11.3065 -48.6935 16.9598
0.3467 -22.8476 -72.8643 41.4238 11.4238 -48.5762 17.1357
0.3518 -23.0821 -72.6884 41.5410 11.5410 -48.4590 17.3116
0.3568 -23.3166 -72.5126 41.6583 11.6583 -48.3417 17.4874
0.3618 -23.5511 -72.3367 41.7755 11.7755 -48.2245 17.6633
0.3668 -23.7856 -72.1608 41.8928 11.8928 -48.1072 17.8392
0.3719 -24.0201 -71.9849 42.0101 12.0101 -47.9899 18.0151
0.3769 -24.2546 -71.8090 42.1273 12.1273 -47.8727 18.1910
0.3819 -24.4891 -71.6332 42.2446 12.2446 -47.7554 18.3668
0.3869 -24.7236 -71.4573 42.3618 12.3618 -47.6382 18.5427
0.3920 -24.9581 -71.2814 42.4791 12.4791 -47.5209 18.7186
0.3970 -25.1926 -71.1055 42.5963 12.5963 -47.4037 18.8945
0.4020 -25.4271 -70.9296 42.7136 12.7136 -47.2864 19.0704
0.4070 -25.6616 -70.7538 42.8308 12.8308 -47.1692 19.2462
0.4121 -25.8961 -70.5779 42.9481 12.9481 -47.0519 19.4221
0.4171 -26.1307 -70.4020 43.0653 13.0653 -46.9347 19.5980
0.4221 -26.3652 -70.2261 43.1826 13.1826 -46.8174 19.7739
0.4271 -26.5997 -70.0503 43.2998 13.2998 -46.7002 19.9497
0.4322 -26.8342 -69.8744 43.4171 13.4171 -46.5829 20.1256
0.4372 -27.0687 -69.6985 43.5343 13.5343 -46.4657 20.3015
0.4422 -27.3032 -69.5226 43.6516 13.6516 -46.3484 20.4774
0.4472 -27.5377 -69.3467 43.7688 13.7688 -46.2312 20.6533
0.4523 -27.7722 -69.1709 43.8861 13.8861 -46.1139 20.8291
0.4573 -28.0067 -68.9950 44.0034 14.0034 -45.9966 21.0050
0.4623 -28.2412 -68.8191 44.1206 14.1206 -45.8794 21.1809
0.4673 -28.4757 -68.6432 44.2379 14.2379 -45.7621 21.3568
0.4724 -28.7102 -68.4673 44.3551 14.3551 -45.6449 21.5327
0.4774 -28.9447 -68.2915 44.4724 14.4724 -45.5276 21.7085
0.4824 -29.1792 -68.1156 44.5896 14.5896 -45.4104 21.8844
0.4874 -29.4137 -67.9397 44.7069 14.7069 -45.2931 22.0603
0.4925 -29.6482 -67.7638 44.8241 14.8241 -45.1759 22.2362
0.4975 -29.8827 -67.5879 44.9414 14.9414 -45.0586 22.4121
0.5025 -30.1173 -67.4121 45.0586 15.0586 -44.9414 22.5879
0.5075 -30.3518 -67.2362 45.1759 15.1759 -44.8241 22.7638
0.5126 -30.5863 -67.0603 45.2931 15.2931 -44.7069 22.9397
0.5176 -30.8208 -66.8844 45.4104 15.4104 -44.5896 23.1156
0.5226 -31.0553 -66.7085 45.5276 15.5276 -44.4724 23.2915
0.5276 -31.2898 -66.5327 45.6449 15.6449 -44.3551 23.4673
0.5327 -31.5243 -66.3568 45.7621 15.7621 -44.2379 23.6432
0.5377 -31.7588 -66.1809 45.8794 15.8794 -44.1206 23.8191
0.5427 -31.9933 -66.0050 45.9966 15.9966 -44.0034 23.9950
0.5477 -32.2278 -65.8291 46.1139 16.1139 -43.8861 24.1709
0.5528 -32.4623 -65.6533 46.2312 16.2312 -43.7688 24.3467
0.5578 -32.6968 -65.4774 46.3484 16.3484 -43.6516 24.5226
0.5628 -32.9313 -65.3015 46.4657 16.4657 -43.5343 24.6985
0.5678 -33.1658 -65.1256 46.5829 16.5829 -43.4171 24.8744
0.5729 -33.4003 -64.9497 46.7002 16.7002 -43.2998 25.0503
0.5779 -33.6348 -64.7739 46.8174 16.8174 -43.1826 25.2261
0.5829 -33.8693 -64.5980 46.9347 16.9347 -43.0653 25.4020
0.5879 -34.1039 -64.4221 47.0519 17.0519 -42.9481 25.5779
0.5930 -34.3384 -64.2462 47.1692 17.1692 -42.8308 25.7538
0.5980 -34.5729 -64.0704 47.2864 17.2864 -42.7136 25.9296
0.6030 -34.8074 -63.8945 47.4037 17.4037 -42.5963 26.1055
0.6080 -35.0419 -63.7186 47.5209 17.5209 -42.4791 26.2814
0.6131 -35.2764 -63.5427 47.6382 17.6382 -42.3618 26.4573
0.6181 -35.5109 -63.3668 47.7554 17.7554 -42.2446 26.6332
0.6231 -35.7454 -63.1910 47.8727 17.8727 -42.1273 26.8090
0.6281 -35.9799 -63.0151 47.9899 17.9899 -42.0101 26.9849
0.6332 -36.2144 -62.8392 48.1072 18.1072 -41.8928 27.1608
0.6382 -36.4489 -62.6633 48.2245 18.2245 -41.7755 27.3367
0.6432 -36.6834 -62.4874 48.3417 18.3417 -41.6583 27.5126
0.6482 -36.9179 -62.3116 48.4590 18.4590 -41.5410 27.6884
0.6533 -37.1524 -62.1357 48.5762 18.5762 -41.4238 27.8643
0.6583 -37.3869 -61.9598 48.6935 18.6935 -41.3065 28.0402
0.6633 -37.6214 -61.7839 48.8107 18.8107 -41.1893 28.2161
0.6683 -37.8559 -61.6080 48.9280 18.9280 -41.0720 28.3920
0.6734 -38.0905 -61.4322 49.0452 19.0452 -40.9548 28.5678
0.6784 -38.3250 -61.2563 49.1625 19.1625 -40.8375 28.7437
0.6834 -38.5595 -61.0804 49.2797 19.2797 -40.7203 28.9196
0.6884 -38.7940 -60.9045 49.3970 19.3970 -40.6030 29.0955
0.6935 -39.0285 -60.7286 49.5142 19.5142 -40.4858 29.2714
0.6985 -39.2630 -60.5528 49.6315 19.6315 -40.3685 29.4472
0.7035 -39.4975 -60.3769 49.7487 19.7487 -40.2513 29.6231
0.7085 -39.7320 -60.2010 49.8660 19.8660 -40.1340 29.7990
0.7136 -39.9665 -60.0251 49.9832 19.9832 -40.0168 29.9749
0.7186 -40.2010 -59.8492 50.1005 20.1005 -39.8995 30.1508
0.7236 -40.4355 -59.6734 50.2178 20.2178 -39.7822 30.3266
0.7286 -40.6700 -59.4975 50.3350 20.3350 -39.6650 30.5025
0.7337 -40.9045 -59.3216 50.4523 20.4523 -39.5477 30.6784
0.7387 -41.1391 -59.1457 50.5695 20.5695 -39.4305 30.8543
0.7437 -41.3736 -58.9698 50.6868 20.6868 -39.3132 31.0302
0.7487 -41.6082 -58.7938 50.8041 20.8041 -39.1959 31.2062
0.7538 -41.8429 -58.6178 50.9215 20.9215 -39.0785 31.3822
0.7588 -42.0777 -58.4417 51.0389 21.0389 -38.9611 31.5583
0.7638 -42.3127 -58.2655 51.1563 21.1563 -38.8437 31.7345
0.7688 -42.5479 -58.0891 51.2739 21.2739 -38.7261 31.9109
0.7739 -42.7834 -57.9125 51.3917 21.3917 -38.6083 32.0875
0.7789 -43.0193 -57.7355 51.5096 21.5096 -38.4904 32.2645
0.7839 -43.2557 -57.5582 51.6278 21.6278 -38.3722 32.4418
0.7889 -43.4928 -57.3804 51.7464 21.7464 -38.2536 32.6196
0.7940 -43.7306 -57.2021 51.8653 21.8653 -38.1347 32.7979
0.7990 -43.9694 -57.0230 51.9847 21.9847 -38.0153 32.9770
0.8040 -44.2093 -56.8430 52.1047 22.1047 -37.8953 33.1570
0.8090 -44.4506 -56.6620 52.2253 22.2253 -37.7747 33.3380
0.8141 -44.6934 -56.4799 52.3467 22.3467 -37.6533 33.5201
0.8191 -44.9381 -56.2964 52.4690 22.4690 -37.5310 33.7036
0.8241 -45.1848 -56.1114 52.5924 22.5924 -37.4076 33.8886
0.8291 -45.4338 -55.9247 52.7169 22.7169 -37.2831 34.0753
0.8342 -45.6854 -55.7360 52.8427 22.8427 -37.1573 34.2640
0.8392 -45.9398 -55.5451 52.9699 22.9699 -37.0301 34.4549
0.8442 -46.1974 -55.3519 53.0987 23.0987 -36.9013 34.6481
0.8492 -46.4585 -55.1561 53.2293 23.2293 -36.7707 34.8439
0.8543 -46.7234 -54.9575 53.3617 23.3617 -36.6383 35.0425
0.8593 -46.9923 -54.7558 53.4962 23.4962 -36.5038 35.2442
0.8643 -47.2657 -54.5507 53.6329 23.6329 -36.3671 35.4493
0.8693 -47.5438 -54.3421 53.7719 23.7719 -36.2281 35.6579
0.8744 -47.8270 -54.1297 53.9135 23.9135 -36.0865 35.8703
0.8794 -48.1157 -53.9132 54.0579 24.0579 -35.9421 36.0868
0.8844 -48.4103 -53.6923 54.2051 24.2051 -35.7949 36.3077
0.8894 -48.7111 -53.4667 54.3555 24.3555 -35.6445 36.5333
0.8945 -49.0187 -53.2360 54.5094 24.5094 -35.4906 36.7640
0.8995 -49.3336 -52.9998 54.6668 24.6668 -35.3332 37.0002
0.9045 -49.6565 -52.7576 54.8282 24.8282 -35.1718 37.2424
0.9095 -49.9879 -52.5091 54.9939 24.9939 -35.0061 37.4909
0.9146 -50.3286 -52.2535 55.1643 25.1643 -34.8357 37.7465
0.9196 -50.6795 -51.9904 55.3397 25.3397 -34.6603 38.0096
0.9246 -51.0414 -51.7190 55.5207 25.5207 -34.4793 38.2810
0.9296 -51.4153 -51.4385 55.7077 25.7077 -34.2923 38.5615
0.9347 -51.8024 -51.1482 55.9012 25.9012 -34.0988 38.8518
0.9397 -52.2040 -50.8470 56.1020 26.1020 -33.8980 39.1530
0.9447 -52.6219 -50.5336 56.3109 26.3109 -33.6891 39.4664
0.9497 -53.0584 -50.2062 56.5292 26.5292 -33.4708 39.7938
0.9548 -53.5170 -49.8622 56.7585 26.7585 -33.2415 40.1378
0.9598 -54.0023 -49.4983 57.0011 27.0011 -32.9989 40.5017
0.9648 -54.5203 -49.1098 57.2601 27.2601 -32.7399 40.8902
0.9698 -55.0788 -48.6909 57.5394 27.5394 -32.4606 41.3091
0.9749 -55.6875 -48.2343 57.8438 27.8438 -32.1562 41.7657
0.9799 -56.3586 -47.7310 58.1793 28.1793 -31.8207 42.2690
0.9849 -57.1066 -47.1701 58.5533 28.5533 -31.4467 42.8299
0.9899 -57.9487 -46.5385 58.9743 28.9743 -31.0257 43.4615
0.9950 -58.9053 -45.8210 59.4526 29.4526 -30.5474 44.1790
1.0000 -60.0000 -45.0000 60.0000 30.0000 -30.0000 45.0000
